IESNA:LM-63-1995
[TEST] 01
[TESTLAB] GREEN CREATIVE
[TESTDATE] 2023-12-05
[ISSUEDATE] 2024-03-19 11:20:21
[NEARFIELD] 
[LAMPPOSITION] 0,0
[OTHER] EVERFINE GO-2000H_V1 SYSTEM
[MANUFAC] GREEN CREATIVE
[LUMINAIRE] LED 8´ç NC CDL
[OTHER] 
[OTHER] Gamma(deg)    Fz(lm)      Ft(lm)     %Lum    %Lamp
[OTHER]   0- 10       292.50      292.50     4.44     4.44
[OTHER]  10- 20       820.15     1112.66    16.88    16.88
[OTHER]  20- 30      1191.69     2304.35    34.95    34.95
[OTHER]  30- 40      1348.80     3653.15    55.41    55.41
[OTHER]  40- 50      1273.56     4926.71    74.72    74.72
[OTHER]  50- 60       988.75     5915.46    89.72    89.72
[OTHER]  60- 70       543.05     6458.52    97.96    97.96
[OTHER]  70- 80       116.19     6574.71    99.72    99.72
[OTHER]  80- 90         3.60     6578.30    99.77    99.77
[OTHER]  90-100         0.00     6578.30    99.77    99.77
[OTHER] 100-110         0.22     6578.52    99.78    99.78
[OTHER] 110-120         1.11     6579.63    99.79    99.79
[OTHER] 120-130         2.16     6581.79    99.83    99.83
[OTHER] 130-140         2.91     6584.70    99.87    99.87
[OTHER] 140-150         3.14     6587.84    99.92    99.92
[OTHER] 150-160         2.79     6590.63    99.96    99.96
[OTHER] 160-170         1.92     6592.55    99.99    99.99
[OTHER] 170-180         0.69     6593.24   100.00   100.00
[OTHER] 
TILT=NONE
1 6593.2 1 181 25 1 2 -0.18 -0.18 0.000
1.000 1 58.9
0.0    1.0    2.0    3.0    4.0    5.0    6.0    7.0    8.0    9.0    
 10.0   11.0   12.0   13.0   14.0   15.0   16.0   17.0   18.0   19.0   
 20.0   21.0   22.0   23.0   24.0   25.0   26.0   27.0   28.0   29.0   
 30.0   31.0   32.0   33.0   34.0   35.0   36.0   37.0   38.0   39.0   
 40.0   41.0   42.0   43.0   44.0   45.0   46.0   47.0   48.0   49.0   
 50.0   51.0   52.0   53.0   54.0   55.0   56.0   57.0   58.0   59.0   
 60.0   61.0   62.0   63.0   64.0   65.0   66.0   67.0   68.0   69.0   
 70.0   71.0   72.0   73.0   74.0   75.0   76.0   77.0   78.0   79.0   
 80.0   81.0   82.0   83.0   84.0   85.0   86.0   87.0   88.0   89.0   
 90.0   91.0   92.0   93.0   94.0   95.0   96.0   97.0   98.0   99.0   
 100.0  101.0  102.0  103.0  104.0  105.0  106.0  107.0  108.0  109.0  
 110.0  111.0  112.0  113.0  114.0  115.0  116.0  117.0  118.0  119.0  
 120.0  121.0  122.0  123.0  124.0  125.0  126.0  127.0  128.0  129.0  
 130.0  131.0  132.0  133.0  134.0  135.0  136.0  137.0  138.0  139.0  
 140.0  141.0  142.0  143.0  144.0  145.0  146.0  147.0  148.0  149.0  
 150.0  151.0  152.0  153.0  154.0  155.0  156.0  157.0  158.0  159.0  
 160.0  161.0  162.0  163.0  164.0  165.0  166.0  167.0  168.0  169.0  
 170.0  171.0  172.0  173.0  174.0  175.0  176.0  177.0  178.0  179.0  
 180.0  
0.0    15.0   30.0   45.0   60.0   75.0   90.0   105.0  120.0  135.0  
 150.0  165.0  180.0  195.0  210.0  225.0  240.0  255.0  270.0  285.0  
 300.0  315.0  330.0  345.0  360.0  
3106.82  3105.81  3102.10  3097.49  3089.76  3081.40  3071.24  3059.08  3045.71  3030.47  
 3013.81  2995.82  2976.51  2955.76  2932.28  2908.66  2882.55  2854.47  2825.35  2794.60  
 2762.72  2729.55  2696.65  2660.61  2624.32  2587.26  2548.03  2508.61  2467.55  2425.26  
 2383.24  2339.07  2294.94  2249.32  2204.36  2156.83  2109.37  2060.71  2011.36  1961.05  
 1910.21  1858.96  1807.82  1755.74  1703.75  1650.73  1597.96  1544.88  1491.02  1436.65  
 1382.74  1326.90  1271.09  1215.51  1158.46  1101.71  1044.38  986.70   929.40   870.98   
 813.88   756.22   698.74   642.22   586.06   530.23   475.71   421.91   369.53   319.11   
 269.89   223.05   180.17   137.29   102.01   73.38    50.77    33.47    20.32    12.36    
 8.77     7.35     6.02     4.80     3.67     2.62     1.64     0.71     0.00     0.00     
 0.00     0.00     0.00     0.00     0.00     0.00     0.00     0.00     0.00     0.00     
 0.00     0.00     0.00     0.05     0.09     0.15     0.19     0.25     0.33     0.39     
 0.49     0.58     0.68     0.79     0.92     1.05     1.18     1.32     1.46     1.59     
 1.74     1.88     2.01     2.15     2.30     2.43     2.57     2.72     2.86     3.00     
 3.13     3.28     3.40     3.55     3.68     3.81     3.95     4.09     4.22     4.33     
 4.46     4.59     4.69     4.77     4.85     5.00     5.14     5.25     5.33     5.40     
 5.50     5.60     5.71     5.81     5.92     6.01     6.10     6.18     6.28     6.35     
 6.43     6.50     6.61     6.69     6.76     6.82     6.89     6.95     6.99     7.03     
 7.08     7.13     7.17     7.21     7.24     7.26     7.28     7.30     7.31     7.32     
 7.33     
3106.82  3105.79  3104.15  3099.05  3093.78  3085.92  3076.51  3064.52  3051.42  3036.65  
 3020.47  3000.85  2981.41  2959.74  2936.80  2912.42  2885.96  2858.79  2829.96  2799.72  
 2767.65  2735.22  2700.65  2664.99  2629.12  2591.25  2552.59  2513.34  2472.03  2430.32  
 2387.46  2344.65  2299.75  2254.72  2208.30  2161.50  2112.04  2064.40  2015.06  1965.59  
 1915.21  1864.20  1813.13  1761.23  1708.50  1656.23  1603.20  1549.64  1495.44  1440.95  
 1386.55  1331.44  1275.53  1220.44  1163.85  1107.18  1049.91  992.71   934.79   877.42   
 819.99   762.71   705.58   648.81   592.42   537.08   482.54   429.02   375.71   322.43   
 273.40   226.41   182.53   142.43   106.85   77.56    54.53    36.66    22.28    13.07    
 8.90     7.49     6.19     4.98     3.85     2.81     1.82     0.89     0.07     0.00     
 0.00     0.00     0.00     0.00     0.00     0.00     0.00     0.00     0.00     0.00     
 0.00     0.00     0.00     0.01     0.07     0.14     0.19     0.26     0.34     0.42     
 0.51     0.59     0.70     0.80     0.90     1.02     1.14     1.26     1.40     1.52     
 1.64     1.77     1.90     2.03     2.16     2.29     2.42     2.56     2.70     2.84     
 2.98     3.12     3.25     3.39     3.52     3.67     3.80     3.94     4.08     4.20     
 4.32     4.43     4.56     4.68     4.80     4.95     5.06     5.15     5.27     5.38     
 5.49     5.59     5.70     5.80     5.89     5.99     6.09     6.18     6.26     6.34     
 6.42     6.50     6.60     6.67     6.73     6.80     6.86     6.91     6.97     7.03     
 7.08     7.11     7.16     7.20     7.23     7.25     7.27     7.30     7.30     7.30     
 7.33     
3106.82  3106.99  3108.55  3107.90  3095.18  3090.42  3095.85  3075.91  3064.95  3038.48  
 3024.83  3009.17  2986.13  2970.97  2943.22  2918.66  2887.60  2861.85  2834.25  2801.29  
 2770.31  2736.07  2710.58  2663.64  2637.58  2600.71  2565.70  2519.59  2470.89  2428.29  
 2387.02  2345.68  2299.39  2261.94  2216.58  2157.26  2119.75  2066.10  2021.47  1966.82  
 1914.71  1873.36  1812.45  1761.10  1709.55  1664.39  1608.21  1548.73  1494.83  1443.47  
 1390.70  1334.62  1283.03  1225.94  1170.41  1112.41  1048.39  991.06   937.70   880.96   
 826.42   767.01   712.03   652.33   598.57   544.92   486.43   429.55   384.40   332.39   
 283.80   237.84   194.80   151.77   113.95   84.70    59.49    40.51    25.80    15.36    
 9.65     7.63     6.43     5.15     4.06     3.00     2.03     1.06     0.22     0.00     
 0.00     0.00     0.00     0.00     0.00     0.00     0.00     0.00     0.00     0.00     
 0.00     0.00     0.00     0.00     0.01     0.07     0.14     0.21     0.29     0.37     
 0.46     0.56     0.65     0.75     0.86     0.97     1.09     1.21     1.33     1.46     
 1.59     1.72     1.86     2.00     2.14     2.28     2.42     2.56     2.70     2.85     
 2.99     3.12     3.26     3.40     3.55     3.68     3.82     3.95     4.08     4.22     
 4.34     4.47     4.60     4.72     4.84     4.96     5.08     5.19     5.31     5.42     
 5.52     5.63     5.74     5.83     5.94     6.02     6.12     6.20     6.28     6.37     
 6.45     6.52     6.60     6.67     6.73     6.80     6.87     6.93     6.99     7.04     
 7.10     7.14     7.19     7.23     7.27     7.29     7.32     7.33     7.33     7.34     
 7.33     
3106.82  3106.33  3105.12  3100.79  3095.27  3086.56  3076.39  3065.64  3051.45  3036.17  
 3020.58  3001.86  2981.55  2959.96  2937.42  2911.65  2887.29  2860.72  2831.41  2797.44  
 2766.33  2735.32  2701.62  2665.97  2628.71  2590.96  2553.89  2513.56  2472.32  2432.18  
 2388.71  2344.86  2300.25  2255.51  2209.35  2162.19  2112.33  2063.67  2014.41  1964.44  
 1913.03  1861.94  1810.69  1758.71  1706.54  1654.82  1602.82  1549.06  1496.32  1442.66  
 1387.92  1332.82  1278.24  1223.26  1167.12  1112.24  1056.62  1000.82  944.65   888.97   
 832.52   776.78   721.24   665.40   609.69   555.31   501.17   448.22   395.75   343.31   
 294.69   249.14   206.00   166.28   130.04   98.42    71.57    49.54    32.87    20.67    
 12.20    7.86     6.38     5.16     4.07     3.07     2.20     1.32     0.48     0.00     
 0.00     0.00     0.00     0.00     0.00     0.00     0.00     0.00     0.00     0.00     
 0.00     0.00     0.00     0.01     0.07     0.14     0.20     0.27     0.35     0.43     
 0.52     0.60     0.70     0.79     0.89     1.01     1.11     1.24     1.36     1.48     
 1.61     1.73     1.87     2.00     2.14     2.28     2.42     2.56     2.69     2.83     
 2.96     3.10     3.24     3.37     3.51     3.65     3.79     3.92     4.06     4.19     
 4.32     4.45     4.58     4.71     4.83     4.94     5.07     5.18     5.30     5.41     
 5.52     5.62     5.73     5.82     5.92     6.01     6.10     6.19     6.26     6.35     
 6.43     6.50     6.58     6.64     6.71     6.78     6.85     6.91     6.97     7.03     
 7.08     7.13     7.17     7.22     7.25     7.28     7.30     7.31     7.33     7.33     
 7.33     
3106.82  3106.09  3103.19  3097.91  3091.66  3084.43  3074.12  3063.26  3050.19  3034.94  
 3018.55  3000.20  2980.77  2958.81  2935.15  2910.61  2884.71  2856.13  2826.97  2796.76  
 2764.21  2731.98  2696.55  2660.90  2624.50  2585.65  2548.01  2508.58  2467.12  2425.42  
 2381.80  2339.26  2294.10  2248.72  2202.08  2154.41  2106.29  2057.94  2008.58  1958.21  
 1907.41  1856.68  1804.66  1752.71  1699.96  1647.53  1594.69  1541.60  1487.92  1434.43  
 1380.58  1326.14  1271.08  1216.87  1162.14  1106.56  1051.34  996.46   940.86   885.27   
 830.32   775.12   720.14   665.51   610.53   556.22   502.63   449.78   398.13   348.46   
 300.09   253.89   210.70   171.73   132.81   101.38   74.43    50.48    32.10    20.07    
 12.11    7.29     5.81     4.63     3.51     2.64     1.93     1.23     0.57     0.25     
 0.11     0.00     0.00     0.00     0.00     0.00     0.00     0.00     0.00     0.00     
 0.00     0.00     0.00     0.00     0.05     0.10     0.17     0.24     0.33     0.41     
 0.50     0.59     0.69     0.79     0.90     1.01     1.13     1.24     1.36     1.49     
 1.62     1.75     1.89     2.03     2.16     2.31     2.45     2.59     2.72     2.87     
 3.01     3.14     3.28     3.41     3.55     3.69     3.83     3.96     4.10     4.23     
 4.35     4.48     4.60     4.72     4.85     4.96     5.08     5.19     5.31     5.41     
 5.52     5.63     5.73     5.83     5.92     6.02     6.11     6.20     6.27     6.36     
 6.44     6.52     6.58     6.66     6.72     6.79     6.85     6.92     6.97     7.03     
 7.08     7.14     7.17     7.22     7.26     7.28     7.30     7.31     7.32     7.32     
 7.33     
3106.82  3105.70  3102.69  3098.56  3091.62  3083.60  3074.63  3062.72  3050.26  3034.55  
 3017.98  2999.81  2979.20  2958.95  2935.15  2911.26  2884.96  2856.78  2827.45  2797.06  
 2765.72  2732.39  2697.63  2661.90  2625.92  2587.70  2549.42  2510.21  2468.14  2426.38  
 2384.07  2339.37  2295.39  2249.50  2204.06  2155.51  2108.04  2058.68  2010.04  1959.31  
 1909.47  1858.09  1805.97  1753.94  1701.60  1648.67  1595.27  1542.08  1487.96  1434.15  
 1380.29  1325.65  1270.32  1216.22  1160.78  1105.67  1050.54  995.10   939.53   884.68   
 829.33   772.43   717.06   661.37   606.36   552.43   499.07   446.56   394.65   342.78   
 294.93   249.30   206.36   166.38   129.94   97.67    69.36    45.62    28.15    16.88    
 10.79    7.40     5.95     4.76     3.69     2.77     2.09     1.42     0.66     0.20     
 0.00     0.00     0.00     0.00     0.00     0.00     0.00     0.00     0.00     0.00     
 0.00     0.00     0.00     0.04     0.11     0.17     0.23     0.31     0.39     0.48     
 0.56     0.65     0.75     0.85     0.95     1.06     1.18     1.30     1.42     1.55     
 1.67     1.80     1.93     2.06     2.20     2.33     2.47     2.61     2.74     2.88     
 3.02     3.14     3.28     3.42     3.55     3.69     3.82     3.96     4.09     4.22     
 4.34     4.47     4.60     4.72     4.84     4.96     5.08     5.19     5.31     5.42     
 5.53     5.63     5.73     5.83     5.93     6.02     6.11     6.20     6.28     6.36     
 6.44     6.52     6.60     6.66     6.73     6.80     6.86     6.92     6.98     7.03     
 7.08     7.13     7.17     7.22     7.25     7.27     7.29     7.30     7.31     7.32     
 7.33     
3106.82  3106.34  3103.57  3099.24  3093.71  3086.02  3077.09  3064.95  3053.41  3038.14  
 3021.22  3002.90  2983.21  2961.75  2938.69  2914.99  2887.78  2860.95  2831.30  2801.91  
 2769.23  2737.24  2702.89  2666.81  2629.99  2592.18  2553.09  2512.66  2471.99  2430.03  
 2387.59  2343.73  2299.50  2253.83  2207.91  2160.33  2111.61  2062.34  2013.33  1962.96  
 1911.70  1860.37  1808.57  1755.81  1703.85  1650.00  1596.50  1542.42  1489.01  1434.23  
 1379.62  1324.94  1269.74  1214.04  1159.19  1103.60  1047.55  992.15   936.21   879.42   
 822.89   766.34   709.93   654.33   599.57   545.02   491.67   439.07   386.74   334.44   
 286.87   240.44   197.15   157.41   121.73   90.90    65.29    44.86    29.42    18.34    
 10.75    6.80     5.38     4.12     3.15     2.53     1.96     1.44     0.90     0.35     
 0.00     0.00     0.00     0.00     0.00     0.00     0.00     0.00     0.00     0.00     
 0.00     0.00     0.06     0.11     0.19     0.26     0.33     0.41     0.51     0.60     
 0.70     0.80     0.91     1.01     1.13     1.24     1.36     1.48     1.60     1.74     
 1.87     2.00     2.13     2.26     2.40     2.53     2.66     2.80     2.93     3.06     
 3.20     3.33     3.47     3.60     3.74     3.87     3.99     4.12     4.25     4.38     
 4.50     4.63     4.75     4.87     4.98     5.10     5.21     5.32     5.43     5.54     
 5.63     5.74     5.84     5.93     6.03     6.12     6.20     6.29     6.37     6.45     
 6.53     6.61     6.68     6.74     6.81     6.87     6.93     6.99     7.05     7.09     
 7.13     7.17     7.22     7.26     7.28     7.30     7.31     7.32     7.33     7.32     
 7.33     
3106.82  3106.35  3103.08  3099.15  3092.80  3085.09  3075.13  3064.52  3051.67  3035.73  
 3020.31  3001.78  2980.98  2960.93  2937.58  2912.88  2888.03  2859.69  2829.68  2799.39  
 2767.88  2734.93  2700.82  2664.83  2627.49  2590.59  2550.86  2511.62  2470.01  2427.99  
 2384.68  2341.34  2296.16  2250.17  2203.81  2156.39  2108.01  2058.53  2009.52  1958.62  
 1908.11  1856.31  1804.84  1752.45  1699.48  1646.24  1592.83  1538.88  1484.99  1430.49  
 1376.30  1321.25  1266.67  1211.18  1156.01  1100.75  1044.95  989.29   934.12   877.85   
 821.81   765.69   709.59   654.31   599.24   545.23   491.61   439.42   388.41   338.64   
 290.71   244.99   201.61   162.74   123.96   92.47    64.77    41.67    24.64    14.11    
 9.31     6.70     5.41     4.30     3.29     2.42     1.78     1.09     0.32     0.00     
 0.00     0.00     0.00     0.00     0.00     0.00     0.00     0.00     0.00     0.00     
 0.00     0.00     0.00     0.06     0.14     0.20     0.28     0.36     0.45     0.55     
 0.65     0.75     0.86     0.97     1.09     1.20     1.33     1.45     1.58     1.72     
 1.83     1.98     2.11     2.25     2.40     2.53     2.67     2.80     2.95     3.08     
 3.21     3.35     3.48     3.62     3.75     3.88     4.01     4.14     4.27     4.40     
 4.52     4.64     4.76     4.88     4.99     5.11     5.22     5.32     5.44     5.55     
 5.65     5.74     5.84     5.94     6.03     6.13     6.21     6.30     6.37     6.46     
 6.54     6.61     6.68     6.75     6.82     6.89     6.95     7.01     7.06     7.11     
 7.16     7.19     7.24     7.28     7.30     7.32     7.34     7.34     7.35     7.34     
 7.33     
3106.82  3109.23  3106.99  3106.53  3100.10  3084.65  3080.29  3069.85  3054.83  3045.32  
 3024.95  3009.96  2992.16  2968.50  2938.53  2912.92  2893.16  2860.40  2827.81  2800.76  
 2765.89  2734.05  2705.48  2667.18  2625.10  2589.48  2545.73  2508.24  2465.97  2432.57  
 2388.71  2346.74  2301.42  2251.77  2202.17  2156.53  2111.38  2058.16  2011.41  1964.24  
 1909.41  1857.30  1807.22  1759.82  1704.31  1650.29  1598.46  1543.50  1489.04  1429.38  
 1371.96  1322.33  1274.95  1219.00  1162.00  1109.28  1052.55  998.37   942.02   881.57   
 828.57   770.57   718.44   663.85   609.56   554.08   499.78   448.15   396.01   343.86   
 296.76   251.18   206.50   164.93   131.04   97.21    71.84    49.35    30.91    19.34    
 11.29    6.74     5.33     4.21     3.13     2.29     1.62     0.97     0.40     0.04     
 0.00     0.00     0.00     0.00     0.00     0.00     0.00     0.00     0.00     0.00     
 0.00     0.00     0.03     0.09     0.16     0.22     0.30     0.38     0.46     0.56     
 0.66     0.75     0.85     0.97     1.08     1.20     1.31     1.44     1.56     1.69     
 1.82     1.95     2.08     2.22     2.36     2.50     2.63     2.77     2.90     3.04     
 3.18     3.31     3.44     3.58     3.72     3.86     3.99     4.12     4.24     4.38     
 4.50     4.63     4.75     4.88     4.98     5.11     5.22     5.33     5.44     5.54     
 5.65     5.75     5.85     5.94     6.04     6.12     6.22     6.30     6.37     6.46     
 6.54     6.61     6.69     6.75     6.81     6.89     6.95     7.01     7.07     7.12     
 7.16     7.22     7.25     7.30     7.32     7.34     7.35     7.36     7.36     7.35     
 7.33     
3106.82  3105.23  3103.60  3099.31  3093.51  3084.96  3075.90  3064.64  3051.46  3037.15  
 3021.17  3002.60  2982.70  2960.97  2937.91  2912.50  2886.40  2858.68  2829.29  2799.44  
 2766.93  2733.54  2698.99  2662.69  2626.02  2587.74  2549.28  2508.52  2467.72  2425.81  
 2382.30  2339.09  2294.63  2249.32  2202.45  2154.63  2106.29  2057.38  2008.37  1957.34  
 1906.36  1855.59  1803.54  1751.00  1698.73  1646.31  1592.86  1538.99  1485.49  1431.86  
 1377.20  1323.15  1268.31  1212.79  1158.05  1102.59  1046.43  990.95   935.22   878.46   
 822.72   766.41   710.42   654.93   599.64   544.66   490.36   437.54   386.01   335.96   
 287.96   242.43   199.71   161.50   123.30   92.60    66.52    45.52    29.68    18.11    
 10.59    6.88     5.60     4.50     3.48     2.57     1.72     0.93     0.26     0.03     
 0.00     0.00     0.00     0.00     0.00     0.00     0.00     0.00     0.00     0.00     
 0.00     0.00     0.00     0.04     0.10     0.16     0.24     0.32     0.41     0.50     
 0.61     0.70     0.81     0.92     1.04     1.15     1.27     1.40     1.53     1.66     
 1.80     1.92     2.07     2.21     2.35     2.49     2.63     2.77     2.91     3.05     
 3.18     3.32     3.46     3.59     3.73     3.87     3.99     4.13     4.25     4.39     
 4.51     4.64     4.76     4.88     4.99     5.11     5.23     5.34     5.45     5.56     
 5.66     5.76     5.86     5.96     6.04     6.13     6.22     6.30     6.39     6.47     
 6.54     6.60     6.68     6.75     6.82     6.88     6.94     7.00     7.05     7.10     
 7.15     7.20     7.25     7.27     7.31     7.33     7.34     7.36     7.36     7.36     
 7.33     
3106.82  3105.88  3103.25  3098.45  3093.30  3084.87  3075.94  3064.89  3051.87  3037.61  
 3020.22  3002.88  2982.18  2961.63  2937.72  2914.27  2887.32  2859.66  2830.19  2799.39  
 2767.95  2734.70  2700.69  2665.09  2629.13  2589.90  2551.41  2510.72  2470.22  2428.24  
 2385.54  2342.16  2297.20  2251.59  2204.52  2157.49  2109.46  2060.81  2010.81  1960.53  
 1909.84  1859.09  1808.06  1755.33  1703.00  1650.46  1596.54  1544.03  1490.04  1435.29  
 1381.12  1326.45  1270.63  1215.13  1160.13  1103.71  1047.16  990.20   933.54   876.09   
 819.30   762.05   704.45   648.19   591.73   535.80   480.99   427.81   374.60   321.41   
 273.71   227.64   185.05   146.09   111.25   81.51    57.86    39.16    24.52    14.10    
 8.73     7.00     5.77     4.65     3.57     2.58     1.69     0.89     0.14     0.00     
 0.00     0.00     0.00     0.00     0.00     0.00     0.00     0.00     0.00     0.00     
 0.00     0.00     0.01     0.07     0.13     0.20     0.27     0.35     0.44     0.53     
 0.63     0.72     0.83     0.94     1.05     1.17     1.29     1.41     1.53     1.67     
 1.79     1.92     2.07     2.20     2.33     2.47     2.61     2.74     2.89     3.02     
 3.16     3.30     3.43     3.58     3.71     3.85     3.98     4.12     4.25     4.38     
 4.49     4.63     4.75     4.86     4.97     5.09     5.19     5.31     5.42     5.54     
 5.63     5.74     5.84     5.94     6.04     6.12     6.21     6.29     6.38     6.46     
 6.53     6.61     6.68     6.75     6.81     6.87     6.95     7.00     7.04     7.09     
 7.14     7.19     7.22     7.26     7.29     7.31     7.34     7.34     7.34     7.34     
 7.33     
3106.82  3117.21  3109.76  3104.52  3095.96  3089.17  3079.40  3073.44  3059.39  3047.58  
 3029.75  3007.35  2981.91  2960.47  2945.22  2920.25  2888.36  2864.72  2836.09  2803.73  
 2778.52  2743.84  2705.25  2665.29  2629.74  2590.61  2550.32  2508.81  2478.09  2433.45  
 2382.93  2339.95  2302.83  2259.00  2205.14  2159.05  2116.35  2064.22  2013.08  1963.50  
 1911.71  1859.12  1810.03  1753.30  1698.26  1645.05  1598.71  1548.27  1491.61  1433.83  
 1385.29  1327.35  1268.46  1212.30  1154.75  1101.43  1039.87  984.90   928.03   866.65   
 806.66   751.06   692.94   636.70   581.53   523.59   469.81   413.72   363.47   314.17   
 261.75   216.52   174.81   133.17   99.60    70.79    49.42    32.84    19.36    11.00    
 8.19     6.81     5.56     4.39     3.33     2.34     1.44     0.60     0.00     0.00     
 0.00     0.00     0.00     0.00     0.00     0.00     0.00     0.00     0.00     0.00     
 0.00     0.00     0.00     0.04     0.10     0.18     0.25     0.33     0.43     0.51     
 0.61     0.71     0.81     0.93     1.04     1.17     1.29     1.41     1.54     1.68     
 1.82     1.96     2.10     2.23     2.38     2.52     2.66     2.81     2.95     3.09     
 3.24     3.36     3.50     3.65     3.78     3.92     4.05     4.19     4.31     4.45     
 4.57     4.69     4.82     4.94     5.07     5.18     5.28     5.37     5.46     5.55     
 5.66     5.76     5.86     5.96     6.06     6.16     6.24     6.33     6.41     6.49     
 6.58     6.66     6.73     6.78     6.86     6.90     6.98     7.03     7.08     7.14     
 7.17     7.20     7.25     7.27     7.31     7.33     7.34     7.34     7.36     7.35     
 7.33     
3106.82  3107.31  3103.59  3099.33  3092.32  3083.19  3073.80  3063.00  3051.34  3036.24  
 3020.99  3003.32  2983.25  2961.91  2938.43  2914.09  2887.07  2859.76  2832.49  2801.71  
 2769.92  2736.40  2702.51  2667.08  2630.02  2592.93  2553.50  2514.20  2472.80  2432.55  
 2390.77  2345.77  2300.05  2255.56  2208.33  2161.26  2112.85  2062.48  2012.79  1963.83  
 1913.86  1863.35  1811.69  1758.45  1706.51  1654.63  1601.88  1548.72  1493.35  1437.36  
 1382.53  1327.30  1270.83  1214.40  1157.35  1100.04  1042.94  983.96   926.25   867.02   
 809.89   751.62   694.37   637.26   580.37   524.62   470.04   416.76   363.11   309.54   
 261.24   214.37   171.25   132.18   97.93    70.03    48.33    31.65    19.11    11.35    
 8.26     6.87     5.60     4.41     3.28     2.29     1.36     0.51     0.00     0.00     
 0.00     0.00     0.00     0.00     0.00     0.00     0.00     0.00     0.00     0.00     
 0.00     0.00     0.07     0.16     0.22     0.28     0.35     0.41     0.48     0.56     
 0.65     0.75     0.86     0.98     1.10     1.23     1.37     1.51     1.65     1.79     
 1.94     2.08     2.22     2.35     2.49     2.62     2.77     2.90     3.04     3.17     
 3.31     3.44     3.58     3.71     3.85     3.99     4.12     4.24     4.38     4.49     
 4.62     4.74     4.87     4.98     5.09     5.21     5.32     5.40     5.47     5.53     
 5.64     5.74     5.83     5.94     6.04     6.12     6.22     6.30     6.38     6.46     
 6.54     6.62     6.69     6.80     6.87     6.94     6.99     7.03     7.08     7.11     
 7.14     7.18     7.23     7.24     7.27     7.29     7.32     7.32     7.33     7.33     
 7.33     
3106.82  3105.60  3104.11  3098.88  3093.14  3085.42  3075.15  3063.84  3051.05  3035.89  
 3019.36  3001.04  2981.68  2960.33  2937.45  2912.64  2885.98  2858.70  2829.84  2799.51  
 2767.31  2734.68  2700.12  2664.65  2627.99  2590.51  2551.46  2511.41  2470.73  2428.76  
 2386.44  2343.13  2298.15  2253.17  2206.71  2159.71  2111.14  2062.08  2012.95  1962.67  
 1912.18  1861.22  1809.66  1756.89  1704.86  1652.08  1598.22  1545.18  1491.49  1436.94  
 1382.13  1326.58  1271.17  1214.44  1158.21  1101.05  1043.70  986.30   928.75   870.93   
 813.34   755.75   698.16   641.35   584.93   529.41   474.33   420.81   368.44   317.02   
 268.01   221.43   178.34   135.30   100.94   72.78    50.90    34.03    20.33    11.82    
 8.49     7.06     5.75     4.55     3.44     2.42     1.48     0.59     0.00     0.00     
 0.00     0.00     0.00     0.00     0.00     0.00     0.00     0.00     0.00     0.00     
 0.00     0.00     0.00     0.06     0.13     0.21     0.28     0.36     0.45     0.54     
 0.64     0.75     0.85     0.97     1.08     1.22     1.34     1.47     1.61     1.74     
 1.87     2.01     2.14     2.28     2.41     2.55     2.70     2.83     2.98     3.10     
 3.24     3.38     3.51     3.65     3.78     3.91     4.05     4.17     4.30     4.43     
 4.55     4.67     4.78     4.89     5.01     5.13     5.25     5.34     5.42     5.53     
 5.63     5.74     5.84     5.93     6.03     6.12     6.21     6.29     6.38     6.46     
 6.54     6.62     6.71     6.78     6.84     6.90     6.96     7.01     7.06     7.10     
 7.15     7.19     7.22     7.25     7.28     7.30     7.32     7.32     7.31     7.31     
 7.33     
3106.82  3121.68  3121.99  3106.27  3099.24  3091.42  3072.48  3076.77  3064.54  3047.89  
 3032.92  3008.48  3001.34  2972.31  2942.45  2923.06  2895.91  2863.76  2840.95  2817.03  
 2781.15  2742.60  2705.69  2679.12  2641.68  2611.07  2563.64  2518.72  2477.26  2442.57  
 2408.48  2361.02  2304.05  2260.75  2227.51  2173.19  2122.22  2077.71  2026.81  1975.66  
 1924.85  1874.46  1822.02  1769.35  1717.09  1664.49  1611.17  1557.59  1503.53  1449.54  
 1395.14  1340.01  1284.43  1228.47  1172.85  1116.38  1059.68  1003.07  945.65   888.65   
 831.37   774.36   716.82   660.51   603.97   548.17   493.28   439.69   385.90   332.17   
 283.35   236.47   192.51   152.13   116.08   85.10    60.46    41.28    26.53    15.67    
 9.67     7.55     6.22     4.99     3.83     2.77     1.83     0.95     0.17     0.00     
 0.00     0.00     0.00     0.00     0.00     0.00     0.00     0.00     0.00     0.00     
 0.00     0.00     0.04     0.11     0.16     0.24     0.31     0.41     0.49     0.58     
 0.69     0.78     0.89     0.99     1.10     1.22     1.34     1.47     1.59     1.71     
 1.84     1.97     2.10     2.25     2.38     2.51     2.65     2.79     2.92     3.05     
 3.18     3.32     3.45     3.59     3.72     3.86     3.99     4.12     4.25     4.38     
 4.50     4.63     4.75     4.86     4.99     5.09     5.21     5.32     5.43     5.53     
 5.64     5.74     5.84     5.94     6.03     6.13     6.22     6.30     6.39     6.47     
 6.54     6.62     6.69     6.75     6.82     6.89     6.95     7.01     7.07     7.11     
 7.16     7.20     7.24     7.28     7.31     7.34     7.35     7.36     7.36     7.35     
 7.33     
3106.82  3106.01  3103.64  3097.52  3090.52  3082.86  3074.48  3063.30  3051.79  3037.03  
 3021.32  3001.91  2982.11  2962.31  2939.25  2915.91  2890.76  2861.83  2831.67  2801.19  
 2768.21  2736.31  2702.12  2667.16  2631.03  2592.94  2554.66  2514.49  2474.77  2433.66  
 2390.31  2347.25  2303.57  2258.87  2212.53  2165.70  2117.07  2067.89  2018.63  1968.43  
 1917.54  1866.44  1814.92  1763.15  1711.44  1658.76  1605.26  1551.82  1498.96  1443.86  
 1390.03  1336.29  1281.04  1226.39  1172.07  1116.08  1060.24  1004.57  948.08   891.60   
 835.92   780.18   723.97   667.95   612.97   557.27   502.63   449.37   396.85   346.01   
 297.42   251.12   207.24   168.05   128.90   96.84    69.94    48.56    32.11    20.09    
 11.97    7.72     6.25     5.01     3.89     2.90     1.97     1.09     0.29     0.00     
 0.00     0.00     0.00     0.00     0.00     0.00     0.00     0.00     0.00     0.00     
 0.00     0.00     0.00     0.05     0.12     0.18     0.26     0.34     0.44     0.52     
 0.63     0.73     0.84     0.94     1.06     1.18     1.30     1.43     1.55     1.68     
 1.82     1.95     2.09     2.22     2.36     2.50     2.63     2.78     2.91     3.05     
 3.18     3.32     3.45     3.58     3.72     3.85     3.98     4.11     4.23     4.36     
 4.49     4.61     4.73     4.86     4.97     5.08     5.19     5.31     5.42     5.52     
 5.63     5.73     5.83     5.93     6.02     6.10     6.19     6.28     6.36     6.44     
 6.51     6.58     6.65     6.72     6.78     6.85     6.91     6.96     7.02     7.07     
 7.12     7.17     7.21     7.25     7.29     7.31     7.32     7.33     7.33     7.33     
 7.33     
3106.82  3105.99  3102.94  3098.76  3092.82  3085.13  3075.61  3064.32  3052.06  3037.07  
 3021.15  3001.62  2982.38  2962.36  2938.63  2914.60  2887.94  2861.02  2832.15  2802.15  
 2770.61  2737.67  2704.24  2669.73  2632.94  2596.24  2556.99  2517.72  2477.32  2436.47  
 2393.23  2350.51  2305.85  2261.43  2214.98  2168.31  2119.70  2071.35  2022.24  1972.05  
 1921.25  1870.40  1818.62  1767.21  1714.88  1661.96  1608.88  1555.86  1502.57  1447.81  
 1394.13  1339.87  1285.04  1230.38  1176.04  1120.32  1065.10  1009.56  954.39   898.38   
 843.35   788.27   731.89   677.18   621.90   566.87   512.98   460.31   408.43   357.24   
 306.10   259.39   215.79   175.17   138.57   105.99   77.74    53.02    33.88    21.36    
 12.82    7.68     5.77     4.51     3.34     2.44     1.75     1.10     0.46     0.00     
 0.00     0.00     0.00     0.00     0.00     0.00     0.00     0.00     0.00     0.00     
 0.00     0.00     0.03     0.10     0.16     0.23     0.31     0.39     0.47     0.56     
 0.66     0.75     0.86     0.97     1.08     1.19     1.31     1.43     1.55     1.68     
 1.81     1.94     2.08     2.21     2.34     2.48     2.61     2.75     2.89     3.02     
 3.15     3.29     3.42     3.56     3.69     3.82     3.95     4.08     4.21     4.34     
 4.47     4.59     4.71     4.83     4.95     5.06     5.18     5.29     5.40     5.50     
 5.60     5.71     5.81     5.90     5.99     6.09     6.17     6.26     6.34     6.41     
 6.50     6.56     6.63     6.70     6.77     6.83     6.89     6.95     7.00     7.05     
 7.10     7.15     7.20     7.24     7.26     7.28     7.29     7.31     7.32     7.32     
 7.33     
3106.82  3106.49  3103.03  3099.66  3093.65  3085.18  3075.07  3064.36  3053.76  3030.68  
 3024.85  2999.42  2976.63  2962.03  2932.96  2918.09  2891.31  2864.39  2830.08  2804.80  
 2770.35  2728.78  2700.50  2665.83  2627.81  2586.40  2552.95  2515.29  2479.17  2439.05  
 2389.90  2347.67  2302.86  2255.03  2210.77  2167.76  2107.35  2066.29  2016.44  1971.65  
 1916.46  1863.54  1814.33  1760.83  1709.62  1657.37  1602.50  1550.17  1500.32  1440.50  
 1389.35  1339.16  1286.19  1226.52  1174.19  1117.36  1060.91  1000.44  941.93   891.72   
 830.54   781.90   723.19   666.90   612.91   560.61   506.61   448.98   402.01   352.41   
 304.25   255.57   209.99   171.90   133.86   99.99    69.09    45.75    28.48    16.97    
 11.02    7.36     5.87     4.62     3.56     2.65     1.92     1.24     0.54     0.14     
 0.00     0.00     0.00     0.00     0.00     0.00     0.00     0.00     0.00     0.00     
 0.00     0.00     0.00     0.05     0.13     0.20     0.27     0.36     0.44     0.54     
 0.65     0.74     0.84     0.96     1.06     1.19     1.31     1.43     1.55     1.69     
 1.82     1.96     2.09     2.23     2.36     2.50     2.63     2.77     2.91     3.04     
 3.19     3.31     3.45     3.57     3.71     3.84     3.98     4.10     4.23     4.36     
 4.48     4.60     4.71     4.84     4.96     5.07     5.19     5.28     5.39     5.51     
 5.61     5.70     5.81     5.91     5.99     6.08     6.17     6.26     6.35     6.42     
 6.51     6.57     6.64     6.71     6.77     6.84     6.90     6.94     7.01     7.06     
 7.11     7.15     7.19     7.23     7.26     7.28     7.29     7.31     7.31     7.32     
 7.33     
3106.82  3105.27  3103.08  3098.72  3091.93  3083.75  3073.29  3062.21  3048.20  3033.93  
 3017.04  2998.13  2978.84  2957.07  2934.57  2909.82  2882.05  2854.15  2825.17  2794.51  
 2762.03  2729.23  2695.47  2659.71  2623.43  2586.34  2547.09  2508.92  2468.56  2426.74  
 2384.04  2340.63  2298.18  2251.23  2205.74  2157.85  2110.34  2061.43  2012.23  1961.94  
 1912.52  1861.69  1809.95  1758.08  1705.95  1652.72  1600.57  1547.84  1493.82  1439.53  
 1386.18  1331.38  1276.53  1222.13  1166.66  1111.36  1056.63  1000.69  944.28   887.57   
 831.59   774.60   718.41   663.09   607.91   553.56   500.07   447.47   395.47   345.70   
 297.16   250.52   206.43   167.01   127.62   96.29    69.87    48.12    31.93    20.35    
 12.18    7.73     6.03     4.60     3.51     2.78     2.17     1.56     0.99     0.40     
 0.00     0.00     0.00     0.00     0.00     0.00     0.00     0.00     0.00     0.00     
 0.00     0.00     0.00     0.00     0.06     0.12     0.19     0.26     0.35     0.44     
 0.52     0.64     0.73     0.83     0.93     1.04     1.16     1.28     1.41     1.53     
 1.65     1.78     1.93     2.06     2.19     2.33     2.47     2.60     2.75     2.88     
 3.03     3.16     3.30     3.42     3.56     3.70     3.83     3.96     4.09     4.22     
 4.34     4.47     4.59     4.72     4.83     4.95     5.07     5.17     5.29     5.41     
 5.51     5.61     5.71     5.80     5.90     5.99     6.09     6.17     6.26     6.34     
 6.42     6.50     6.57     6.64     6.71     6.76     6.84     6.89     6.95     7.00     
 7.06     7.10     7.14     7.19     7.23     7.26     7.27     7.29     7.30     7.31     
 7.33     
3106.82  3106.32  3102.67  3099.14  3092.17  3083.96  3074.10  3062.99  3049.70  3034.56  
 3018.47  3000.20  2978.98  2957.35  2935.20  2910.74  2884.24  2856.77  2829.05  2797.45  
 2766.29  2733.83  2698.89  2663.51  2627.28  2589.46  2551.39  2511.92  2470.74  2429.46  
 2386.46  2343.67  2298.72  2253.43  2207.21  2159.91  2112.33  2064.20  2014.92  1965.22  
 1914.45  1864.34  1812.60  1760.77  1708.56  1655.74  1603.04  1549.88  1496.31  1442.75  
 1388.61  1334.20  1279.53  1225.21  1169.80  1114.86  1059.83  1004.75  949.01   892.77   
 836.71   780.11   724.98   669.33   613.83   559.74   506.73   454.53   403.45   352.37   
 301.33   254.89   211.54   170.92   134.14   101.62   72.77    47.52    29.40    17.03    
 10.91    7.96     6.29     5.01     3.87     2.87     2.12     1.43     0.64     0.17     
 0.00     0.00     0.00     0.00     0.00     0.00     0.00     0.00     0.00     0.00     
 0.00     0.00     0.00     0.04     0.10     0.16     0.23     0.31     0.38     0.47     
 0.55     0.64     0.74     0.84     0.95     1.06     1.18     1.30     1.42     1.53     
 1.66     1.79     1.92     2.05     2.18     2.32     2.45     2.60     2.73     2.87     
 3.00     3.13     3.26     3.39     3.53     3.67     3.80     3.93     4.07     4.19     
 4.32     4.45     4.57     4.69     4.81     4.93     5.05     5.16     5.28     5.39     
 5.49     5.60     5.70     5.81     5.90     5.99     6.08     6.17     6.26     6.35     
 6.42     6.49     6.57     6.63     6.70     6.77     6.83     6.89     6.95     7.00     
 7.05     7.10     7.15     7.20     7.23     7.26     7.28     7.29     7.31     7.31     
 7.33     
3106.82  3108.90  3108.50  3101.98  3092.86  3087.50  3078.32  3059.98  3049.31  3037.45  
 3023.13  3005.61  2984.35  2959.71  2933.76  2910.52  2888.72  2859.80  2827.23  2794.81  
 2762.41  2737.28  2707.36  2662.13  2633.79  2594.46  2549.80  2511.56  2465.28  2429.07  
 2387.80  2339.72  2298.48  2253.78  2206.69  2157.18  2113.58  2064.16  2015.80  1963.51  
 1912.16  1860.38  1810.39  1758.91  1708.64  1658.38  1603.57  1551.52  1494.14  1439.27  
 1383.79  1329.14  1280.24  1224.72  1172.07  1113.40  1058.43  1001.26  947.02   894.62   
 839.38   787.01   724.84   671.92   617.27   564.55   513.60   457.55   408.28   358.64   
 308.58   257.77   218.21   177.89   137.58   105.21   77.46    54.04    34.97    22.35    
 13.37    8.11     6.28     4.99     3.79     2.81     2.01     1.26     0.57     0.19     
 0.04     0.00     0.00     0.00     0.00     0.00     0.00     0.00     0.00     0.00     
 0.00     0.00     0.00     0.00     0.03     0.10     0.17     0.25     0.33     0.41     
 0.49     0.59     0.70     0.79     0.90     1.02     1.14     1.25     1.37     1.50     
 1.63     1.76     1.90     2.03     2.17     2.31     2.45     2.59     2.72     2.87     
 3.01     3.14     3.27     3.41     3.55     3.69     3.82     3.95     4.09     4.23     
 4.35     4.47     4.59     4.71     4.84     4.95     5.07     5.18     5.29     5.40     
 5.51     5.61     5.72     5.81     5.91     6.01     6.10     6.18     6.27     6.35     
 6.43     6.51     6.59     6.66     6.72     6.78     6.85     6.91     6.96     7.01     
 7.07     7.12     7.17     7.21     7.25     7.27     7.30     7.31     7.33     7.33     
 7.33     
3106.82  3105.46  3102.84  3097.98  3091.63  3082.69  3073.04  3061.92  3049.62  3035.02  
 3018.56  3000.93  2980.46  2958.37  2935.60  2910.77  2883.58  2857.08  2826.81  2796.12  
 2764.19  2731.02  2696.48  2660.69  2623.44  2586.84  2549.12  2509.89  2469.53  2426.90  
 2385.33  2341.74  2297.32  2251.56  2206.02  2158.67  2110.13  2061.67  2011.86  1963.19  
 1912.74  1861.76  1810.30  1758.78  1707.52  1654.96  1602.39  1549.63  1496.48  1442.41  
 1389.65  1335.02  1280.88  1226.17  1171.95  1116.81  1061.60  1006.52  950.62   895.33   
 839.80   783.87   728.41   673.29   617.74   563.15   508.91   455.75   403.76   352.61   
 301.45   254.99   211.77   171.47   134.70   102.53   74.97    52.26    34.71    21.83    
 12.80    8.22     6.62     5.38     4.24     3.18     2.23     1.33     0.50     0.00     
 0.00     0.00     0.00     0.00     0.00     0.00     0.00     0.00     0.00     0.00     
 0.00     0.00     0.00     0.02     0.08     0.14     0.21     0.28     0.37     0.44     
 0.53     0.62     0.72     0.82     0.92     1.04     1.15     1.27     1.38     1.51     
 1.64     1.77     1.89     2.02     2.17     2.29     2.43     2.58     2.71     2.84     
 2.97     3.11     3.24     3.37     3.52     3.66     3.78     3.92     4.05     4.17     
 4.31     4.44     4.57     4.69     4.82     4.94     5.05     5.17     5.29     5.40     
 5.50     5.61     5.71     5.82     5.91     6.00     6.09     6.17     6.25     6.34     
 6.41     6.49     6.56     6.64     6.70     6.78     6.83     6.90     6.96     7.02     
 7.07     7.13     7.17     7.21     7.25     7.28     7.30     7.32     7.32     7.34     
 7.33     
3106.82  3104.60  3103.51  3098.27  3091.21  3084.23  3074.92  3062.81  3049.13  3033.56  
 3016.58  2998.47  2979.17  2956.69  2934.03  2909.17  2882.89  2854.67  2826.21  2795.61  
 2763.66  2730.96  2696.85  2660.66  2624.71  2586.35  2546.47  2507.12  2466.32  2424.21  
 2381.98  2338.99  2294.02  2248.77  2203.25  2155.70  2107.46  2058.42  2009.71  1959.52  
 1909.65  1858.76  1808.09  1756.12  1704.89  1652.06  1599.58  1546.80  1493.17  1439.31  
 1385.99  1331.30  1276.53  1221.98  1166.24  1110.65  1054.98  998.94   942.13   885.84   
 829.46   772.72   715.88   659.80   603.48   547.92   493.16   439.67   386.58   336.30   
 286.84   240.01   196.61   154.29   118.55   87.59    62.60    42.73    27.36    16.03    
 9.79     7.83     6.51     5.28     4.12     3.05     2.06     1.12     0.27     0.00     
 0.00     0.00     0.00     0.00     0.00     0.00     0.00     0.00     0.00     0.00     
 0.00     0.00     0.00     0.00     0.04     0.11     0.18     0.25     0.33     0.42     
 0.51     0.62     0.70     0.81     0.91     1.03     1.14     1.26     1.38     1.51     
 1.64     1.77     1.91     2.05     2.19     2.32     2.45     2.60     2.73     2.87     
 3.01     3.14     3.28     3.41     3.54     3.68     3.81     3.94     4.08     4.20     
 4.33     4.46     4.58     4.70     4.82     4.94     5.06     5.17     5.28     5.40     
 5.50     5.61     5.71     5.82     5.91     6.00     6.09     6.18     6.26     6.34     
 6.42     6.51     6.58     6.65     6.72     6.79     6.87     6.93     6.98     7.03     
 7.09     7.14     7.18     7.24     7.26     7.29     7.30     7.32     7.34     7.34     
 7.33     
3106.82  3108.26  3109.00  3109.74  3100.56  3083.74  3074.21  3059.77  3055.92  3031.60  
 3020.68  3007.44  2985.63  2963.27  2941.42  2920.03  2892.65  2861.04  2834.60  2801.69  
 2768.39  2734.11  2701.77  2663.02  2632.65  2593.80  2547.74  2514.66  2471.86  2432.50  
 2389.06  2345.74  2300.16  2261.74  2213.23  2161.79  2113.52  2068.02  2016.02  1963.19  
 1919.49  1865.40  1811.15  1763.52  1711.30  1661.04  1610.05  1549.42  1498.90  1441.62  
 1390.54  1333.67  1282.50  1222.21  1165.32  1108.63  1056.10  996.97   938.27   879.90   
 825.45   767.41   712.38   653.54   595.38   539.99   485.62   432.17   378.93   325.72   
 275.95   230.06   185.54   144.01   109.02   79.52    55.96    37.48    23.21    13.61    
 9.04     7.60     6.31     5.05     3.90     2.85     1.89     0.92     0.11     0.00     
 0.00     0.00     0.00     0.00     0.00     0.00     0.00     0.00     0.00     0.00     
 0.00     0.00     0.00     0.04     0.11     0.17     0.23     0.30     0.38     0.46     
 0.55     0.64     0.74     0.84     0.95     1.06     1.18     1.29     1.42     1.53     
 1.66     1.80     1.93     2.06     2.20     2.33     2.47     2.60     2.74     2.89     
 3.02     3.15     3.29     3.42     3.57     3.70     3.84     3.97     4.10     4.23     
 4.34     4.47     4.60     4.70     4.82     4.94     5.07     5.19     5.28     5.39     
 5.50     5.60     5.71     5.82     5.92     6.02     6.11     6.19     6.28     6.37     
 6.46     6.56     6.62     6.70     6.74     6.83     6.90     6.95     7.01     7.07     
 7.10     7.15     7.19     7.23     7.26     7.28     7.31     7.32     7.33     7.35     
 7.33     
3106.82  3105.81  3102.10  3097.49  3089.76  3081.40  3071.24  3059.08  3045.71  3030.47  
 3013.81  2995.82  2976.51  2955.76  2932.28  2908.66  2882.55  2854.47  2825.35  2794.60  
 2762.72  2729.55  2696.65  2660.61  2624.32  2587.26  2548.03  2508.61  2467.55  2425.26  
 2383.24  2339.07  2294.94  2249.32  2204.36  2156.83  2109.37  2060.71  2011.36  1961.05  
 1910.21  1858.96  1807.82  1755.74  1703.75  1650.73  1597.96  1544.88  1491.02  1436.65  
 1382.74  1326.90  1271.09  1215.51  1158.46  1101.71  1044.38  986.70   929.40   870.98   
 813.88   756.22   698.74   642.22   586.06   530.23   475.71   421.91   369.53   319.11   
 269.89   223.05   180.17   137.29   102.01   73.38    50.77    33.47    20.32    12.36    
 8.77     7.35     6.02     4.80     3.67     2.62     1.64     0.71     0.00     0.00     
 0.00     0.00     0.00     0.00     0.00     0.00     0.00     0.00     0.00     0.00     
 0.00     0.00     0.00     0.05     0.09     0.15     0.19     0.25     0.33     0.39     
 0.49     0.58     0.68     0.79     0.92     1.05     1.18     1.32     1.46     1.59     
 1.74     1.88     2.01     2.15     2.30     2.43     2.57     2.72     2.86     3.00     
 3.13     3.28     3.40     3.55     3.68     3.81     3.95     4.09     4.22     4.33     
 4.46     4.59     4.69     4.77     4.85     5.00     5.14     5.25     5.33     5.40     
 5.50     5.60     5.71     5.81     5.92     6.01     6.10     6.18     6.28     6.35     
 6.43     6.50     6.61     6.69     6.76     6.82     6.89     6.95     6.99     7.03     
 7.08     7.13     7.17     7.21     7.24     7.26     7.28     7.30     7.31     7.32     
 7.33     
